# Format:          MT1DAniResp_1.0
# Description:     Response file generated at Tue 28 Apr 2020 07:04:56 PM CST
Frequencies (Hz):      31
    1.00000e+02
    6.30957e+01
    3.98107e+01
    2.51189e+01
    1.58489e+01
    1.00000e+01
    6.30957e+00
    3.98107e+00
    2.51189e+00
    1.58489e+00
    1.00000e+00
    6.30957e-01
    3.98107e-01
    2.51189e-01
    1.58489e-01
    1.00000e-01
    6.30957e-02
    3.98107e-02
    2.51189e-02
    1.58489e-02
    1.00000e-02
    6.30957e-03
    3.98107e-03
    2.51189e-03
    1.58489e-03
    1.00000e-03
    6.30957e-04
    3.98107e-04
    2.51189e-04
    1.58489e-04
    1.00000e-04
Impedance:
#  RealZXX         ImagZXX         RealZXY         ImagZXY         RealZYX         ImagZYX         RealZYY         ImagZYY
  -2.450513e-02    1.447236e-03    2.060456e+00    1.982702e+00   -1.975568e+00   -1.987716e+00    2.450513e-02   -1.447236e-03
  -3.282850e-02   -3.128429e-02    1.675494e+00    1.672685e+00   -1.561773e+00   -1.564313e+00    3.282850e-02    3.128429e-02
  -8.765524e-03   -7.058739e-02    1.277058e+00    1.461754e+00   -1.246693e+00   -1.217232e+00    8.765524e-03    7.058739e-02
   4.260198e-02   -8.536978e-02    8.733392e-01    1.241808e+00   -1.020917e+00   -9.460785e-01   -4.260198e-02    8.536978e-02
   9.103487e-02   -6.363891e-02    5.413195e-01    9.792769e-01   -8.566735e-01   -7.588253e-01   -9.103487e-02    6.363891e-02
   1.128386e-01   -2.158236e-02    3.219340e-01    7.202580e-01   -7.128185e-01   -6.454946e-01   -1.128386e-01    2.158236e-02
   1.056710e-01    1.822210e-02    1.939729e-01    5.082800e-01   -5.600279e-01   -5.714032e-01   -1.056710e-01   -1.822210e-02
   8.091512e-02    4.158944e-02    1.209698e-01    3.517305e-01   -4.012680e-01   -4.958005e-01   -8.091512e-02   -4.158944e-02
   5.353919e-02    4.672614e-02    7.834368e-02    2.408991e-01   -2.638089e-01   -4.027632e-01   -5.353919e-02   -4.672614e-02
   3.270165e-02    4.079050e-02    5.297316e-02    1.640982e-01   -1.662550e-01   -3.054006e-01   -3.270165e-02   -4.079050e-02
   1.973066e-02    3.148384e-02    3.728171e-02    1.118139e-01   -1.056307e-01   -2.208772e-01   -1.973066e-02   -3.148384e-02
   1.239610e-02    2.297159e-02    2.690526e-02    7.625761e-02   -6.984662e-02   -1.558335e-01   -1.239610e-02   -2.297159e-02
   8.234276e-03    1.649845e-02    1.998204e-02    5.176747e-02   -4.850640e-02   -1.089198e-01   -8.234276e-03   -1.649845e-02
   5.649384e-03    1.187044e-02    1.559465e-02    3.492679e-02   -3.516469e-02   -7.604719e-02   -5.649384e-03   -1.187044e-02
   3.926739e-03    8.570185e-03    1.292534e-02    2.354273e-02   -2.652797e-02   -5.323072e-02   -3.926739e-03   -8.570185e-03
   2.744853e-03    6.261446e-03    1.131868e-02    1.606943e-02   -2.082713e-02   -3.775972e-02   -2.744853e-03   -6.261446e-03
   1.834888e-03    4.691440e-03    1.024330e-02    1.140295e-02   -1.659954e-02   -2.765458e-02   -1.834888e-03   -4.691440e-03
   1.023737e-03    3.556745e-03    9.276478e-03    8.685130e-03   -1.282281e-02   -2.100606e-02   -1.023737e-03   -3.556745e-03
   3.295196e-04    2.586688e-03    8.131499e-03    7.202758e-03   -9.272988e-03   -1.616331e-02   -3.295196e-04   -2.586688e-03
  -1.167665e-04    1.696516e-03    6.685996e-03    6.331182e-03   -6.281505e-03   -1.220809e-02    1.167665e-04   -1.696516e-03
  -2.712838e-04    9.744429e-04    5.048594e-03    5.555907e-03   -4.108839e-03   -8.931476e-03    2.712838e-04   -9.744429e-04
  -2.396068e-04    4.988699e-04    3.522224e-03    4.629982e-03   -2.692202e-03   -6.358118e-03    2.396068e-04   -4.988699e-04
  -1.556068e-04    2.393622e-04    2.353061e-03    3.621330e-03   -1.814023e-03   -4.450505e-03    1.556068e-04   -2.393622e-04
  -8.680051e-05    1.134264e-04    1.571651e-03    2.700243e-03   -1.270965e-03   -3.093164e-03    8.680051e-05   -1.134264e-04
  -4.481154e-05    5.488361e-05    1.079792e-03    1.960015e-03   -9.245600e-04   -2.150137e-03    4.481154e-05   -5.488361e-05
  -2.227278e-05    2.746341e-05    7.700615e-04    1.407051e-03   -6.929063e-04   -1.502187e-03    2.227278e-05   -2.746341e-05
  -1.088118e-05    1.421500e-05    5.680391e-04    1.008842e-03   -5.303456e-04   -1.058084e-03    1.088118e-05   -1.421500e-05
  -5.281792e-06    7.577166e-06    4.299055e-04    7.265324e-04   -4.116089e-04   -7.527805e-04    5.281792e-06   -7.577166e-06
  -2.561541e-06    4.139160e-06    3.311662e-04    5.271667e-04   -3.222928e-04   -5.415052e-04    2.561541e-06   -4.139160e-06
  -1.244616e-06    2.308005e-06    2.580617e-04    3.859832e-04   -2.537502e-04   -3.939783e-04    1.244616e-06   -2.308005e-06
  -6.066523e-07    1.309801e-06    2.025664e-04    2.853402e-04   -2.004649e-04   -2.898775e-04    6.066523e-07   -1.309801e-06
Apparent resistivity:
#       RhoXX         PhsXX         RhoXY         PhsXY         RhoYX         PhsYX         RhoYY         PhsYY
       0.7632        176.62    10355.7703         43.90     9947.0585       -134.82        0.7632         -3.38
       4.1278       -136.38    11251.1866         44.95     9808.0521       -134.95        4.1278         43.62
      16.0957        -97.08    11986.0341         48.86     9658.2340       -135.69       16.0957         82.92
      45.8977        -63.48    11621.0279         54.88     9768.1994       -137.18       45.8977        116.52
      98.5893        -34.96    10005.0429         61.07    10466.0961       -138.47       98.5893        145.04
     167.1591        -10.83     7882.9547         65.92    11712.3924       -137.84      167.1591        169.17
     230.8064          9.78     5941.0618         69.11    12849.3329       -134.42      230.8064       -170.22
     263.3178         27.20     4401.3243         71.02    12942.7879       -128.98      263.3178       -152.80
     254.6138         41.11     3235.5081         71.98    11688.2115       -123.22      254.6138       -138.89
     218.4201         51.28     2376.1288         72.11     9662.1633       -118.56      218.4201       -128.72
     174.8463         57.92     1759.4783         71.56     7592.0688       -115.56      174.8463       -122.08
     136.7682         61.65     1312.5915         70.57     5853.7920       -114.14      136.7682       -118.35
     108.1663         63.48      979.5841         68.89     4522.7210       -114.01      108.1663       -116.52
      87.1386         64.55      737.6932         65.94     3539.4032       -114.82       87.1386       -115.45
      71.0155         65.38      576.4238         61.23     2826.6758       -116.49       71.0155       -114.62
      59.1968         66.33      489.3045         54.84     2355.1678       -118.88       59.1968       -113.67
      50.9379         68.64      471.6183         48.07     2088.2265       -120.97       50.9379       -111.36
      43.5795         73.94      513.7376         43.11     1926.8716       -121.40       43.5795       -106.06
      34.2838         82.74      594.9703         41.53     1750.8158       -119.84       34.2838        -97.26
      23.1089         93.94      677.5438         43.44     1506.2956       -117.23       23.1089        -86.06
      12.9581        105.56      713.7622         47.74     1224.1350       -114.70       12.9581        -74.44
       6.1480        115.65      679.3236         52.74      956.9486       -112.95        6.1480        -64.35
       2.5930        123.03      593.3499         56.99      734.8162       -112.18        2.5930        -56.97
       1.0286        127.43      492.1775         59.80      563.8564       -112.34        1.0286        -52.57
       0.4012        129.23      400.1673         61.15      437.7493       -113.27        0.4012        -50.77
       0.1584        129.04      325.8473         61.31      346.6052       -114.76        0.1584        -50.96
       0.0643        127.43      269.0636         60.62      281.1832       -116.62        0.0643        -52.57
       0.0271        124.88      226.7242         59.39      234.1788       -118.67        0.0271        -55.12
       0.0119        121.75      195.4188         57.86      200.2212       -120.76        0.0119        -58.25
       0.0055        118.34      172.2730         56.23      175.4929       -122.78        0.0055        -61.66
       0.0026        114.85      155.0875         54.63      157.3203       -124.67        0.0026        -65.15
